baseline wavenumber (cm-1),baseline absorbance (cm-1),baseline-subtracted absorbance (cm-1)
3399.943,0.0751764870343,0.0
3401.871,0.0748753117639,0.000504222729725
3403.8,0.0745739802822,-0.00155552777643
3405.728,0.0742728050118,-0.000538618948994
3407.657,0.0739714735301,0.00104110772385
3409.585,0.0736702982596,0.00327944662049
3411.514,0.073368966778,0.00484204880881
3413.442,0.0730677915075,0.00231034506898
3415.371,0.0727664600258,-0.000184856614926
3417.299,0.0724652847554,-0.000848244145912
3419.228,0.0721639532737,-0.00132345561524
3421.156,0.0718627780033,-0.00189038686608
3423.085,0.0715614465216,-0.00132345113473
3425.013,0.0712602712512,0.000846739303108
3426.942,0.0709589397695,0.00297724531474
3428.87,0.070657764499,0.0024131098981
3430.799,0.0703564330174,-3.10946945459e-06
3432.727,0.0700552577469,0.00160791412698
3434.656,0.0697539262652,0.00441850680947
3436.584,0.0694527509948,0.00674805979711
3438.513,0.0691514195131,0.00578113098662
3440.441,0.0688502442427,0.00597641403647
3442.37,0.068548912761,0.00795140177034
3444.298,0.0682477374906,0.00899871529478
3446.227,0.0679464060089,0.00884537423854
3448.155,0.0676452307385,0.00723944110051
3450.084,0.0673438992568,0.00822225717015
3452.012,0.0670427239863,0.0079118437078
3453.941,0.0667413925047,0.00723673009267
3455.869,0.0664402172342,0.00822533109877
3457.798,0.0661388857525,0.0098501405982
3459.726,0.0658377104821,0.0136904924955
3461.655,0.0655363790004,0.0156528989754
3463.583,0.06523520373,0.0172338673541
3465.512,0.0649338722483,0.0173597602393
3467.44,0.0646326969779,0.017630880292
3469.369,0.0643313654962,0.0207193089988
3471.297,0.0640301902257,0.0222810560174
3473.226,0.0637288587441,0.0219599649087
3475.154,0.0634276834736,0.0232770764341
3477.083,0.0631263519919,0.023905520518
3479.011,0.0628251767215,0.024170699423
3480.94,0.0625238452398,0.0246715835712
3482.868,0.0622226699694,0.0283039952994
3484.797,0.0619213384877,0.0340344873318
3486.725,0.0616201632173,0.0356196494618
3488.654,0.0613188317356,0.0313333664891
3490.582,0.0610176564651,0.0288694617287
3492.511,0.0607163249835,0.0272794113694
3494.439,0.060415149713,0.02401869386
3496.368,0.0601138182313,0.0214972812305
3498.296,0.0598126429609,0.0232051105863
3500.225,0.0595113114792,0.0255236364484
3502.153,0.0592101362088,0.024629243116
3504.082,0.0589088047271,0.0229070895904
3506.01,0.0586076294567,0.0252995488477
3507.939,0.058306297975,0.0322360938612
3509.867,0.0580051227046,0.037255239356
3511.796,0.0577037912229,0.0395555922957
3513.724,0.0574026159524,0.0436293963492
3515.653,0.0571012844708,0.0479043071977
3517.581,0.0568001092003,0.0505927754016
3519.51,0.0564987777186,0.0571354572712
3521.438,0.0561976024482,0.0654079053452
3523.367,0.0558962709665,0.0687172049544
3525.295,0.0555950956961,0.068339691471
3527.224,0.0552937642144,0.0633506056745
3529.152,0.054992588944,0.0613675843978
3531.081,0.0546912574623,0.0581098189339
3533.009,0.0543900821918,0.0526232679165
3534.938,0.0540887507102,0.0482674385678
3536.866,0.0537875754397,0.0438080071422
3538.795,0.053486243958,0.0459696168094
3540.723,0.0531850686876,0.0474471393225
3542.652,0.0528837372059,0.0473780227717
3544.58,0.0525825619355,0.0399847128251
3546.509,0.0522812304538,0.0299428556579
3548.437,0.0519800551834,0.0278277312149
3550.366,0.0516787237017,0.0305320821975
3552.294,0.0513775484312,0.0319931791846
3554.223,0.0510762169496,0.0393620300624
3556.151,0.0507750416791,0.0525708729081
3558.08,0.0504737101974,0.0664302528975
3560.008,0.050172534927,0.0823524528412
3561.937,0.0498712034453,0.0970596695539
3563.865,0.0495700281749,0.108339736276
3565.794,0.0492686966932,0.110971745049
3567.722,0.0489675214228,0.105779106102
3569.651,0.0486661899411,0.126938409206
3571.579,0.0483650146707,0.150988798148
3573.508,0.048063683189,0.148985663285
3575.436,0.0477625079185,0.121613671574
3577.365,0.0474611764369,0.0883384321464
3579.293,0.0471600011664,0.060982167003
3581.222,0.0468586696847,0.044998113708
3583.15,0.0465574944143,0.035255604069
3585.079,0.0462561629326,0.0263785613282
3587.007,0.0459549876622,0.0203324939902
3588.936,0.0456536561805,0.0225500203415
3590.864,0.0453524809101,0.0360164294136
3592.793,0.0450511494284,0.0489350111923
3594.721,0.0447499741579,0.0627959823668
3596.65,0.0444486426763,0.0782287180563
3598.578,0.0441474674058,0.0844217644387
3600.507,0.0438461359241,0.065730994152
3602.435,0.0435449606537,0.0376995350477
3604.364,0.043243629172,0.0210577617555
3606.292,0.0429424539016,0.00727666960439
3608.221,0.0426411224199,-0.00461358345296
3610.149,0.0423399471495,-0.00827760004665
3612.078,0.0420386156678,-0.00968417378619
3614.006,0.0417374403973,-0.018953837965
3615.935,0.0414361089157,-0.0134124142208
3617.863,0.0411349336452,-0.0140705595626
3619.792,0.0408336021635,-0.0246114731358
3621.72,0.0405324268931,-0.0186064466037
3623.649,0.0402310954114,-0.00883876997633
3625.577,0.039929920141,-0.00511304728155
3627.506,0.0396285886593,-0.00494207156977
3629.434,0.0393274133889,-0.0247579718568
3631.363,0.0390260819072,-0.0230559274373
3633.291,0.0387249066367,-0.0172480072169
3635.22,0.0384235751551,-0.0137636184905
3637.148,0.0381223998846,-0.0044616044698
3639.077,0.037821068403,-0.00437031003292
3641.005,0.0375198931325,-0.00442735102026
3642.934,0.0372185616508,-0.00663143646736
3644.862,0.0369173863804,-0.00541392653556
3646.791,0.0366160548987,-0.0131436288136
3648.719,0.0363148796283,-0.0335798548152
3650.648,0.0360135481466,-0.0355410521656
3652.576,0.0357123728762,-0.0183034122275
3654.505,0.0354110413945,-0.00696902000634
3656.433,0.035109866124,-0.0162079300088
3658.362,0.0348085346424,-0.0151356472446
3660.29,0.0345073593719,-0.00724937377046
3662.219,0.0342060278902,-0.00561023562072
3664.147,0.0339048526198,-0.0052755103398
3666.076,0.0336035211381,-0.00390127748117
3668.004,0.0333023458677,-0.00279629987621
3669.933,0.033001014386,-0.0199923473
3671.861,0.0326998391156,-0.0207532395489
3673.79,0.0323985076339,-0.00874190597036
3675.718,0.0320973323634,-0.0320973323634
3677.647,0.0317960008818,-0.0306801135539
3679.575,0.0314948256113,-0.0186490158678
3681.504,0.0311934941296,-0.010674517405
3683.432,0.0308923188592,-0.00426793918492
3685.361,0.0305909873775,-0.00329525801428
3687.289,0.0302898121071,-0.002074602769
3689.218,0.0299884806254,-0.0138372958907
3691.146,0.029687305355,-0.0194699292454
3693.075,0.0293859738733,-0.0157531368005
3695.003,0.0290847986028,-0.009373817964
3696.932,0.0287834671212,-0.00456035955145
3698.86,0.0284822918507,-0.00425918428101
